File: Ex2_NiO_on_Mo_not_calibrated.msa
#FORMAT      : EMSA/MAS Spectral Data File
#VERSION     : 1.0
#TITLE       : Spectrum 2
#DATE        : 28-FEB-2017
#TIME        : 15:22
#OWNER       :
#NPOINTS     : 2048
#NCOLUMNS    : 1
#XUNITS      : channel
#YUNITS      : counts
#DATATYPE    : XY
#XPERCHAN    : 1.0
#OFFSET      : 0.0
#SIGNALTYPE  : EDS
#CHOFFSET    : 20.0
#LIVETIME    : 120.0
#REALTIME    : 130.375
#BEAMKV      : 200.0
#MAGCAM      : 100000.0
#XTILTSTGE   : 0.0
#AZIMANGLE   : 0.0
#ELEVANGLE   : 18.6
#XPOSITION mm: 0.0000
#YPOSITION mm: 0.0000
#ZPOSITION mm: 0.0000
#COMMENT     : File created by HyperSpy version 1.3
#SPECTRUM    : Spectral Data Starts Here
0.000000,
0.000000,
8.000000,
3996,
2060,
362,
889,
4657,
248,
394,
6506,
1939,
343,
1354,
2050,
16033,
2192,
280,
195,
200,
201,
222,
213,
200,
220,
223,
208,
231,
281,
195,
195,
165,
189,
175,
168,
228,
299,
209,
191,
171,
164,
168,
148,
128,
145,
134,
137,
124,
117,
115,
109,
104,
100,
109,
93,
89,
89,
102,
93,
88,
86,
102,
90,
79,
80,
84,
91,
79,
76,
74,
73,
77,
77,
76,
82,
82,
69,
70,
62,
72,
70,
75,
72,
79,
101,
114,
77,
79,
54,
55,
64,
67,
55,
72,
107,
98,
65,
58,
60,
52,
57,
64,
82,
70,
85,
81,
106,
408,
3744,
13834,
13936,
3839,
350,
92,
71,
77,
71,
92,
137,
446,
1591,
2110,
943,
172,
59,
43,
44,
39,
51,
39,
42,
53,
42,
37,
40,
32,
37,
36,
40,
40,
50,
53,
51,
37,
54,
37,
39,
44,
42,
46,
37,
35,
42,
38,
41,
32,
38,
37,
32,
31,
43,
31,
34,
35,
31,
34,
49,
37,
43,
29,
37,
27,
25,
29,
38,
33,
25,
28,
33,
37,
26,
27,
35,
31,
31,
30,
26,
20,
27,
20,
14,
31,
23,
19,
36,
21,
17,
21,
20,
27,
17,
19,
23,
25,
28,
20,
22,
27,
18,
20,
24,
20,
21,
28,
22,
25,
34,
22,
22,
18,
16,
22,
27,
13,
9.000000,
21,
17,
20,
14,
21,
22,
13,
15,
18,
17,
16,
19,
22,
12,
16,
15,
24,
16,
10,
15,
17,
11,
17,
24,
67,
120,
173,
180,
124,
56,
20,
15,
14,
15,
13,
10,
13,
14,
14,
13,
12,
18,
11,
9.000000,
14,
11,
14,
12,
9.000000,
10,
15,
15,
7.000000,
11,
10,
17,
24,
31,
28,
25,
13,
12,
16,
8.000000,
8.000000,
10,
7.000000,
7.000000,
10,
#ENDOFDATA   : End Of Data and File