File: example_data/unknown_not_calibrated.msa
#FORMAT      : EMSA/MAS Spectral Data File
#VERSION     : 1.0
#DATE        :
#TIME        :
#OWNER       :
#NPOINTS     : 2048
#NCOLUMNS    : 1
#DATATYPE    : Y
#SIGNALTYPE  :
#XPERCHAN    : 1.0
#OFFSET      : 0.0
#XLABEL      :
#XUNITS      : channel
#COMMENT     : File created by HyperSpy version 1.3
#TITLE       :
#SPECTRUM    : Spectral Data Starts Here
0.000000,
0.000000,
6.000000,
1981,
739,
11,
18,
33,
15,
57,
37,
16,
10,
16,
29,
33,
84,
51,
238,
492,
37,
23,
20,
18,
36,
33,
25,
36,
55,
60,
73,
42,
46,
56,
42,
43,
30,
44,
45,
43,
50,
61,
54,
63,
57,
48,
39,
47,
103,
97,
53,
45,
82,
300,
1934,
1449,
186,
524,
1234,
574,
194,
277,
269,
72,
66,
155,
79,
50,
86,
61,
38,
26,
31,
31,
33,
36,
24,
32,
29,
27,
35,
30,
35,
26,
38,
32,
31,
34,
33,
35,
28,
31,
31,
40,
59,
38,
37,
26,
31,
32,
32,
44,
50,
35,
39,
25,
34,
25,
25,
30,
29,
27,
34,
36,
29,
51,
230,
851,
1021,
350,
69,
29,
28,
31,
35,
34,
28,
29,
60,
123,
174,
108,
82,
371,
1346,
1799,
759,
149,
30,
18,
24,
23,
24,
29,
25,
25,
29,
44,
147,
255,
238,
83,
27,
20,
21,
23,
19,
19,
16,
15,
14,
18,
21,
18,
19,
21,
30,
18,
20,
17,
16,
13,
17,
12,
13,
14,
17,
10,
16,
14,
12,
19,
16,
17,
16,
16,
12,
16,
14,
17,
12,
20,
14,
13,
12,
13,
11,
17,
12,
15,
11,
11,
13,
9.000000,
13,
16,
16,
13,
12,
15,
13,
9.000000,
15,
6.000000,
9.000000,
10,
9.000000,
11,
8.000000,
9.000000,
10,
13,
14,
5.000000,
9.000000,
10,
10,
9.000000,
5.000000,
11,
10,
10,
7.000000,
13,
11,
4.000000,
11,
10,
11,
10,
5.000000,
10,
7.000000,
7.000000,
6.000000,
9.000000,
10,
8.000000,
5.000000,
7.000000,
6.000000,
6.000000,
10,
9.000000,
3.000000,
5.000000,
10,
9.000000,
8.000000,
8.000000,
7.000000,
3.000000,
9.000000,
3.000000,
8.000000,
4.000000,
5.000000,
6.000000,
8.000000,
7.000000,
3.000000,
10,
5.000000,
5.000000,
6.000000,
6.000000,
4.000000,
6.000000,
7.000000,
9.000000,
4.000000,
7.000000,
5.000000,
5.000000,
5.000000,
6.000000,
5.000000,
3.000000,
5.000000,
6.000000,
5.000000,
2.000000,
4.000000,
5.000000,
#ENDOFDATA   : End Of Data and File